EPICA Dome C-99 Ice Core Electrical Conductance Data
-----------------------------------------------------------------------
               World Data Center for Paleoclimatology, Boulder
                                  and
                     NOAA Paleoclimatology Program
-----------------------------------------------------------------------
NOTE: PLEASE CITE CONTRIBUTORS WHEN USING THIS DATA!!!!!


NAME OF DATA SET: EPICA Dome C-99 Ice Core Electrical Conductance Data
LAST UPDATE: 6/2004 (Original receipt by WDC Paleo)

CONTRIBUTORS: Jacqueline Flückiger, Bernhard Stauffer, Jakob Schwander, 
Climate and Environmental Physics, Physics Institute, University of Bern, 
Switzerland

IGBP PAGES/WDCA CONTRIBUTION SERIES NUMBER: 2004-030

SUGGESTED DATA CITATION: Flückiger, J., et al. 2004.
EPICA Dome C-99 Ice Core Electrical Conductance Data. 
IGBP PAGES/World Data Center for Paleoclimatology 
Data Contribution Series # 2004-030.
NOAA/NGDC Paleoclimatology Program, Boulder CO, USA.


ORIGINAL REFERENCES: 
Stauffer, B., J. Flückiger, E.W. Wolff, and P. Barnes. 2004.
The EPICA deep ice cores: First results and perspectives. 
Annals of Glaciology, 39, 93-100.

EPICA community members. 2004. 
Eight glacial cycles from an Antarctic ice core.
Nature, Vol. 429, No 6992, pp.623-628, June 10, 2004.
doi:10.1038/nature02599.


GEOGRAPHIC REGION: Antarctica
PERIOD OF RECORD:  43 - 800 kyr BP


DESCRIPTION: 
Electrical conductance measured along the EPICA Dome C - 99 ice core. 
The data were corrected to -15°C.



DATA:
Column 1: depth [m]
Column 2: age [yr BP] (EDC2: EPICA community members, Nature, 2004)
Column 3: electrical conductance [nS]

REMARKS: yr BP is years before 1950. 
For further information see original references.


  Depth       Age    Cond.
     772     43606       42
     773     43688    36.81
     774     43771    37.44
     775     43859    29.01
     776     43944    27.55
     777     44029    38.77
     778     44116     36.2
     779     44200    30.51
     780     44282    29.69
     781     44365    34.48
     782     44448    31.67
     783     44529    37.46
     784     44609    33.88
     785     44687    32.72
     786     44764     30.4
     787     44839     41.3
     788     44915    27.95
     789     44991    36.48
     790     45064    37.59
     791     45136    34.19
     792     45204    36.56
     793     45274     31.2
     794     45347    42.34
     795     45420     33.5
     796     45493    28.15
     797     45566    31.15
     798     45638     34.3
     799     45706    34.64
     800     45772    29.55
     801     45839    34.82
     802     45909     29.1
     803     45982     36.2
     804     46058    34.16
     805     46134    35.74
     806     46209    37.29
     807     46286    37.43
     808     46363    39.42
     809     46436    30.76
     810     46511    28.57
     811     46590     27.1
     812     46669    29.99
     813     46749     24.7
     814     46828     29.9
     815     46907    36.79
     816     46987    36.98
     817     47072     41.5
     818     47160    37.53
     819     47250    40.98
     820     47338    40.51
     821     47423    36.24
     822     47504    35.63
     823     47586     38.2
     824     47671    39.58
     825     47757    32.79
     826     47843    39.28
     827     47928    40.74
     828     48010    46.28
     829     48093    45.74
     830     48180    41.27
     831     48267    41.48
     832     48355    39.84
     833     48443    36.14
     834     48528    41.91
     835     48611     45.4
     836     48693    35.31
     837     48775    39.75
     838     48860    37.42
     839     48944    37.46
     840     49029    47.59
     841     49110    42.56
     842     49190    30.57
     843     49273    28.89
     844     49357    36.38
     845     49437     41.2
     846     49519    44.92
     847     49602    41.01
     848     49684    49.34
     849     49767    36.23
     850     49850    35.51
     851     49932    36.87
     852     50016    40.46
     853     50101    33.01
     854     50184    33.24
     855     50267    29.56
     856     50348    35.66
     857     50427    39.97
     858     50507    35.45
     859     50588    42.04
     860     50665    49.05
     861     50742    35.77
     862     50818    36.62
     863     50892    37.28
     864     50967    33.06
     865     51045    26.22
     866     51125     33.2
     867     51204    40.03
     868     51282    35.48
     869     51360    28.96
     870     51438    36.66
     871     51514    39.88
     872     51589    30.57
     873     51664    32.36
     874     51743    32.84
     875     51819    31.38
     876     51892    32.47
     877     51966    37.25
     878     52037       30
     879     52107    29.46
     880     52177    33.69
     881     52250    29.08
     882     52327    31.27
     883     52408    21.11
     884     52488    27.17
     885     52566    28.43
     886     52642    33.58
     887     52721    32.09
     888     52801     33.4
     889     52879     30.8
     890     52955    28.86
     891     53033    37.91
     892     53115    30.42
     893     53200       34
     894     53285    37.68
     895     53371    37.27
     896     53458    31.04
     897     53540    30.51
     898     53620    32.74
     899     53698    35.33
     900     53778     36.2
     901     53859    41.15
     902     53941    37.34
     903     54025    29.62
     904     54109    35.27
     905     54193    36.25
     906     54278    42.53
     907     54368    42.83
     908     54458    36.94
     909     54548    38.95
     910     54639    43.77
     911     54727    43.93
     912     54813    35.98
     913     54898    44.67
     914     54984     45.4
     915     55069    28.67
     916     55153     32.9
     917     55236    39.09
     918     55321    30.16
     919     55402    40.64
     920     55480    35.42
     921     55558    40.67
     922     55638     NaN
     923     55714    39.11
     924     55788    28.23
     925     55863    27.73
     926     55944       28
     927     56024     NaN
     928     56103    36.57
     929     56181    39.13
     930     56260     28.8
     931     56342    30.44
     932     56423    30.03
     933     56502     32.8
     934     56579    29.85
     935     56655    29.73
     936     56729    27.69
     937     56802    32.49
     938     56876    31.41
     939     56952    33.92
     940     57027    29.26
     941     57098    32.41
     942     57171    28.21
     943     57245    28.87
     944     57321    26.86
     945     57398    35.14
     946     57475    30.51
     947     57551    28.22
     948     57628    33.37
     949     57704    28.04
     950     57783     35.2
     951     57863    27.57
     952     57942    34.18
     953     58020    32.81
     954     58101    30.97
     955     58182    30.93
     956     58260    31.98
     957     58338    32.41
     958     58419    32.44
     959     58503    39.77
     960     58589    30.67
     961     58675    39.39
     962     58762    34.06
     963     58847    34.55
     964     58931    40.37
     965     59013     39.9
     966     59095    33.07
     967     59182    34.26
     968     59268    34.04
     969     59353    28.71
     970     59440    35.21
     971     59526    33.41
     972     59613    30.65
     973     59700    32.14
     974     59790    36.96
     975     59880    33.42
     976     59970    41.73
     977     60061    39.18
     978     60151     33.6
     979     60245     33.5
     980     60342    34.59
     981     60440    27.97
     982     60535    24.96
     983     60633    32.62
     984     60732    33.23
     985     60830    38.18
     986     60930     32.5
     987     61030    32.47
     988     61132     33.2
     989     61235    33.09
     990     61341    31.51
     991     61449    34.73
     992     61555    35.37
     993     61661    35.47
     994     61765    30.83
     995     61860    26.93
     996     61952     31.2
     997     62046    29.05
     998     62142    35.43
     999     62236    29.86
    1000     62331    27.85
    1001     62430    33.42
    1002     62534    39.15
    1003     62637    38.33
    1004     62740    36.14
    1005     62845    43.04
    1006     62949     36.5
    1007     63053     36.3
    1008     63158    33.71
    1009     63256    35.61
    1010     63356     39.2
    1011     63462       32
    1012     63567    33.17
    1013     63674    36.62
    1014     63780    39.91
    1015     63887    37.49
    1016     63996    33.31
    1017     64105    34.61
    1018     64215    34.48
    1019     64326    42.57
    1020     64436    35.08
    1021     64543    31.01
    1022     64649    30.93
    1023     64754    33.91
    1024     64861    29.96
    1025     64967    33.16
    1026     65074    33.55
    1027     65183    34.93
    1028     65292    30.07
    1029     65401    33.66
    1030     65510    32.91
    1031     65615    33.21
    1032     65721    36.94
    1033     65826    31.38
    1034     65929    36.97
    1035     66032    33.94
    1036     66139    37.25
    1037     66250    36.29
    1038     66357    35.97
    1039     66455     38.6
    1040     66552    40.21
    1041     66651    44.85
    1042     66756    44.34
    1043     66864    39.29
    1044     66975    37.06
    1045     67088    38.34
    1046     67198    44.13
    1047     67308    39.75
    1048     67415    30.83
    1049     67519    35.59
    1050     67620     29.5
    1051     67716    34.51
    1052     67818    26.23
    1053     67919    27.96
    1054     68015     26.1
    1055     68109    27.51
    1056     68201    29.04
    1057     68292    28.71
    1058     68381    26.88
    1059     68467    21.14
    1060     68552    25.82
    1061     68636    28.55
    1062     68717    30.61
    1063     68801    34.59
    1064     68891    32.72
    1065     68982    33.58
    1066     69071     23.5
    1067     69159    23.31
    1068     69249    25.38
    1069     69342    24.22
    1070     69434    29.58
    1071     69525    31.63
    1072     69617    27.15
    1073     69710    24.65
    1074     69802    26.61
    1075     69896    27.44
    1076     69993    26.78
    1077     70091    24.98
    1078     70191     32.9
    1079     70295    30.42
    1080     70401    29.18
    1081     70506    32.02
    1082     70607    27.41
    1083     70707    23.25
    1084     70805    29.83
    1085     70900    28.23
    1086     70991    27.91
    1087     71084    24.16
    1088     71178    30.39
    1089     71271    27.76
    1090     71363    30.66
    1091     71452     26.2
    1092     71541    30.34
    1093     71630    26.32
    1094     71714    25.77
    1095     71796    28.28
    1096     71879    29.74
    1097     71961    28.28
    1098     72043    30.28
    1099     72126    33.35
    1100     72207    33.56
    1101     72284    33.33
    1102     72360    25.84
    1103     72441    23.26
    1104     72523    23.99
    1105     72607     27.1
    1106     72692    23.16
    1107     72778     24.9
    1108     72867    28.16
    1109     72955    29.58
    1110     73043    30.15
    1111     73134    29.99
    1112     73226    31.99
    1113     73319    27.72
    1114     73415    30.42
    1115     73515    37.48
    1116     73615    24.56
    1117     73712     32.1
    1118     73806    26.33
    1119     73901    28.27
    1120     73996    30.81
    1121     74091    27.39
    1122     74187    24.32
    1123     74281    27.35
    1124     74374    27.71
    1125     74470    27.49
    1126     74565    28.31
    1127     74657    30.02
    1128     74747    25.95
    1129     74837    28.28
    1130     74926    30.41
    1131     75014    32.32
    1132     75105    27.88
    1133     75200    26.95
    1134     75296    29.23
    1135     75393    27.52
    1136     75486    27.29
    1137     75580    28.55
    1138     75671     27.9
    1139     75760    24.97
    1140     75853    25.99
    1141     75945    33.38
    1142     76034    29.04
    1143     76124    27.03
    1144     76212     32.6
    1145     76297     30.8
    1146     76381    29.73
    1147     76467    32.12
    1148     76560     29.1
    1149     76657    26.81
    1150     76749    27.69
    1151     76833    32.63
    1152     76916    32.61
    1153     77000    32.25
    1154     77087    28.48
    1155     77174    26.84
    1156     77258    27.22
    1157     77341    27.69
    1158     77428    27.56
    1159     77516    26.04
    1160     77601    27.51
    1161     77683     29.2
    1162     77766    28.68
    1163     77850     32.2
    1164     77934    31.96
    1165     78018    29.91
    1166     78102    28.56
    1167     78183    29.16
    1168     78266    32.91
    1169     78350    39.84
    1170     78435    29.88
    1171     78520    26.73
    1172     78605     31.2
    1173     78692    30.94
    1174     78777    29.79
    1175     78858    31.85
    1176     78942    29.86
    1177     79025    30.36
    1178     79108    27.07
    1179     79188    29.56
    1180     79266    30.11
    1181     79344    32.34
    1182     79422    31.23
    1183     79500    28.25
    1184     79581    28.28
    1185     79661    28.03
    1186     79740    28.99
    1187     79816    28.78
    1188     79891    33.77
    1189     79970    30.19
    1190     80050    30.22
    1191     80129    32.72
    1192     80207    31.59
    1193     80282    30.48
    1194     80356    32.26
    1195     80432    28.27
    1196     80509    28.28
    1197     80586    32.92
    1198     80663    32.01
    1199     80736     36.8
    1200     80810    32.68
    1201     80885    27.99
    1202     80961     25.2
    1203     81040    27.96
    1204     81117    27.92
    1205     81191    30.87
    1206     81266    32.42
    1207     81344    30.99
    1208     81421    24.77
    1209     81498    26.27
    1210     81577    30.94
    1211     81657    28.43
    1212     81739       27
    1213     81819    25.26
    1214     81897    24.77
    1215     81976    27.33
    1216     82055     29.9
    1217     82134    26.47
    1218     82215     27.4
    1219     82298    26.82
    1220     82381    28.42
    1221     82466    26.33
    1222     82551    25.97
    1223     82634     24.3
    1224     82715    27.48
    1225     82798    28.47
    1226     82882    23.39
    1227     82967     27.1
    1228     83054    27.81
    1229     83141    27.48
    1230     83230    31.44
    1231     83321    27.62
    1232     83411    25.28
    1233     83499     32.2
    1234     83589    26.63
    1235     83680    30.18
    1236     83772    28.59
    1237     83864    24.98
    1238     83959    27.24
    1239     84057    29.17
    1240     84152    31.64
    1241     84248    26.11
    1242     84344    31.57
    1243     84440    37.83
    1244     84542    41.91
    1245     84652     37.5
    1246     84758    28.66
    1247     84859    34.64
    1248     84963     34.5
    1249     85066    34.97
    1250     85168    35.72
    1251     85272    29.91
    1252     85375    33.87
    1253     85475    34.12
    1254     85577     36.4
    1255     85681    31.82
    1256     85783    32.39
    1257     85887    33.75
    1258     85990     31.6
    1259     86090    29.86
    1260     86188    27.84
    1261     86284    30.14
    1262     86380    32.11
    1263     86478    26.59
    1264     86579    28.37
    1265     86676    33.92
    1266     86768    29.95
    1267     86862    31.78
    1268     86958    27.93
    1269     87056       33
    1270     87152    32.84
    1271     87245     43.2
    1272     87336    31.09
    1273     87428    27.94
    1274     87524    25.37
    1275     87620     22.9
    1276     87717    29.21
    1277     87818    26.31
    1278     87919    29.81
    1279     88023    37.01
    1280     88128     25.8
    1281     88228    24.96
    1282     88326    22.96
    1283     88425     27.5
    1284     88529    24.16
    1285     88637    25.24
    1286     88743     27.2
    1287     88848    25.73
    1288     88947    32.91
    1289     89045    25.51
    1290     89147    24.89
    1291     89250    24.92
    1292     89352     28.5
    1293     89452    30.81
    1294     89554    25.84
    1295     89659    26.54
    1296     89759    23.37
    1297     89856    25.26
    1298     89952    25.32
    1299     90044    24.94
    1300     90138    24.02
    1301     90234    26.72
    1302     90327       27
    1303     90427    27.63
    1304     90531    27.57
    1305     90631    29.34
    1306     90730    24.48
    1307     90827    23.73
    1308     90924    24.48
    1309     91024    23.74
    1310     91124    23.54
    1311     91223    32.79
    1312     91321    31.36
    1313     91418    26.54
    1314     91516    31.26
    1315     91612    27.29
    1316     91705    35.49
    1317     91800    28.31
    1318     91898    30.87
    1319     91994    29.33
    1320     92091    26.89
    1321     92191    31.46
    1322     92290    34.11
    1323     92381    31.12
    1324     92468    33.18
    1325     92558    27.86
    1326     92649    35.31
    1327     92741    26.11
    1328     92836    30.05
    1329     92931    31.69
    1330     93024    29.77
    1331     93119    31.38
    1332     93214    34.08
    1333     93312    33.34
    1334     93409    32.19
    1335     93501    29.31
    1336     93597       31
    1337     93695    30.84
    1338     93790    30.09
    1339     93884    28.37
    1340     93981    32.63
    1341     94080    28.65
    1342     94180    34.13
    1343     94279    41.21
    1344     94378    36.78
    1345     94477    34.43
    1346     94576    32.72
    1347     94672    31.99
    1348     94766    27.96
    1349     94858    37.03
    1350     94952    29.52
    1351     95049    36.07
    1352     95147    33.06
    1353     95247    39.74
    1354     95344    34.22
    1355     95439    24.62
    1356     95535    25.31
    1357     95631    27.29
    1358     95726    29.44
    1359     95824    29.53
    1360     95922    31.58
    1361     96018    31.13
    1362     96112     27.7
    1363     96202    26.16
    1364     96297    26.41
    1365     96398    25.06
    1366     96498    30.27
    1367     96596    33.34
    1368     96692    31.18
    1369     96791    30.14
    1370     96891    32.31
    1371     96989    31.19
    1372     97087    30.98
    1373     97186    31.95
    1374     97284    31.93
    1375     97382    30.53
    1376     97482    30.05
    1377     97582    30.16
    1378     97678     28.4
    1379     97775    30.28
    1380     97871    30.32
    1381     97967       35
    1382     98064    36.17
    1383     98159    29.14
    1384     98251    30.69
    1385     98338    34.17
    1386     98425    34.99
    1387     98519     33.3
    1388     98619    34.97
    1389     98720    36.83
    1390     98817    35.81
    1391     98914     37.3
    1392     99006    40.64
    1393     99099    36.51
    1394     99196    48.03
    1395     99296    35.95
    1396     99397    41.75
    1397     99498    29.89
    1398     99600     31.1
    1399     99704    32.55
    1400     99805    37.63
    1401     99907    30.93
    1402    100011    28.37
    1403    100112     35.6
    1404    100211    32.45
    1405    100309     28.3
    1406    100411    30.18
    1407    100518     28.9
    1408    100624    32.59
    1409    100733     28.2
    1410    100843    27.13
    1411    100951    31.31
    1412    101057    41.67
    1413    101163    33.76
    1414    101269    35.48
    1415    101376    30.66
    1416    101482    31.57
    1417    101589    30.35
    1418    101697    39.19
    1419    101806    33.74
    1420    101914    31.77
    1421    102022    31.82
    1422    102131    31.64
    1423    102239    37.09
    1424    102349    36.97
    1425    102459    36.22
    1426    102570    35.35
    1427    102680    45.63
    1428    102791    29.98
    1429    102901    38.48
    1430    103012     39.4
    1431    103124    30.42
    1432    103236    36.31
    1433    103349    32.84
    1434    103462    30.85
    1435    103574     28.1
    1436    103687    33.92
    1437    103800    33.44
    1438    103914    32.28
    1439    104029    35.03
    1440    104144    43.14
    1441    104259    31.48
    1442    104374    23.67
    1443    104489    29.75
    1444    104605    21.87
    1445    104721    23.04
    1446    104838    26.43
    1447    104955    30.57
    1448    105073    36.21
    1449    105190    24.75
    1450    105308    23.82
    1451    105426    31.79
    1452    105544    28.07
    1453    105664    25.13
    1454    105784    26.47
    1455    105904    31.21
    1456    106024    37.63
    1457    106144    31.13
    1458    106265    32.64
    1459    106387    26.41
    1460    106509    27.76
    1461    106631    25.38
    1462    106754    28.26
    1463    106874    22.72
    1464    106994    25.81
    1465    107116    24.95
    1466    107237    29.52
    1467    107355    26.82
    1468    107472    27.87
    1469    107589    23.71
    1470    107707    26.91
    1471    107824    30.84
    1472    107940    28.49
    1473    108059    23.46
    1474    108173    26.37
    1475    108287    25.18
    1476    108402    24.63
    1477    108517    24.37
    1478    108630    23.81
    1479    108746    27.14
    1480    108860    25.67
    1481    108976     34.5
    1482    109092    25.05
    1483    109207    28.16
    1484    109322    27.78
    1485    109438    28.61
    1486    109554    27.81
    1487    109670    29.26
    1488    109784    23.12
    1489    109896    33.19
    1490    110006    29.75
    1491    110114    29.58
    1492    110220    21.89
    1493    110326    22.59
    1494    110431    28.93
    1495    110535    32.36
    1496    110639    23.35
    1497    110743     24.9
    1498    110846    25.37
    1499    110949    24.79
    1500    111052     28.5
    1501    111156    25.25
    1502    111260    22.42
    1503    111358    28.66
    1504    111456    21.93
    1505    111552    25.88
    1506    111649    30.97
    1507    111748    23.29
    1508    111845    27.65
    1509    111942    28.99
    1510    112042    35.38
    1511    112139    40.56
    1512    112231    35.46
    1513    112324    28.77
    1514    112420    29.08
    1515    112512     30.5
    1516    112603    26.43
    1517    112695    29.64
    1518    112788    26.41
    1519    112883    29.14
    1520    112976    30.33
    1521    113069    30.82
    1522    113163    30.56
    1523    113254    33.18
    1524    113346    33.09
    1525    113433     31.9
    1526    113517    35.09
    1527    113605    32.31
    1528    113691    32.77
    1529    113775    28.72
    1530    113857    30.82
    1531    113940    32.97
    1532    114023    34.65
    1533    114106     31.3
    1534    114191    29.37
    1535    114276    30.84
    1536    114362    29.17
    1537    114442    30.67
    1538    114520    33.87
    1539    114600    41.52
    1540    114681    36.09
    1541    114763    41.14
    1542    114844    39.35
    1543    114929    31.75
    1544    115014    35.25
    1545    115099    32.37
    1546    115182    36.95
    1547    115261    36.58
    1548    115340    38.15
    1549    115424    34.71
    1550    115510    35.59
    1551    115596    36.34
    1552    115675    41.43
    1553    115748    35.09
    1554    115822    37.62
    1555    115898    36.61
    1556    115977    31.17
    1557    116059    34.92
    1558    116140    35.69
    1559    116221    38.09
    1560    116302    41.15
    1561    116384    36.15
    1562    116468    40.74
    1563    116550    51.85
    1564    116634    35.72
    1565    116717    36.98
    1566    116796    39.74
    1567    116876    38.31
    1568    116954    40.53
    1569    117032    35.02
    1570    117113    44.84
    1571    117196    40.76
    1572    117279    43.46
    1573    117358    49.59
    1574    117435    44.41
    1575    117512    48.36
    1576    117591    49.84
    1577    117670    51.92
    1578    117750    51.97
    1579    117831    46.36
    1580    117912    51.61
    1581    117991    55.11
    1582    118069    48.58
    1583    118148    53.64
    1584    118227     52.1
    1585    118305    56.16
    1586    118383    49.03
    1587    118461    49.44
    1588    118540    47.55
    1589    118617    47.17
    1590    118695    51.97
    1591    118772    49.64
    1592    118849    49.17
    1593    118926    46.47
    1594    119002    46.16
    1595    119079    39.32
    1596    119155    39.96
    1597    119231    44.14
    1598    119307    43.03
    1599    119384    48.34
    1600    119459    47.88
    1601    119535     48.4
    1602    119610     48.6
    1603    119684    48.52
    1604    119760    49.73
    1605    119838    49.15
    1606    119917    46.64
    1607    119996     48.5
    1608    120073    45.77
    1609    120151    46.78
    1610    120232    49.74
    1611    120311    46.01
    1612    120388    49.32
    1613    120463    49.84
    1614    120536    48.63
    1615    120613    50.06
    1616    120694    51.58
    1617    120774    48.11
    1618    120849    48.69
    1619    120926    49.37
    1620    121004    48.14
    1621    121082    49.22
    1622    121160    49.65
    1623    121239    50.55
    1624    121317    52.06
    1625    121396    48.92
    1626    121473    35.95
    1627    121546    42.57
    1628    121615    44.13
    1629    121681    41.83
    1630    121749    48.37
    1631    121823    54.89
    1632    121902    47.27
    1633    121984    48.01
    1634    122068    48.94
    1635    122152     47.4
    1636    122233     48.6
    1637    122312     50.1
    1638    122393    43.89
    1639    122475    48.62
    1640    122559    51.16
    1641    122640    48.36
    1642    122719    45.45
    1643    122800    51.12
    1644    122881    50.84
    1645    122960    50.29
    1646    123041    49.41
    1647    123121    52.27
    1648    123201       48
    1649    123283    43.19
    1650    123371    49.53
    1651    123457    51.51
    1652    123540     48.7
    1653    123620    47.67
    1654    123703     50.7
    1655    123784    53.99
    1656    123865    42.07
    1657    123949     33.2
    1658    124034    39.11
    1659    124117    40.76
    1660    124198    41.98
    1661    124277    45.89
    1662    124355    45.24
    1663    124431    42.28
    1664    124505     40.4
    1665    124582    43.31
    1666    124656    39.81
    1667    124730    45.25
    1668    124807    43.42
    1669    124882    43.32
    1670    124958    42.92
    1671    125035    44.86
    1672    125109    43.55
    1673    125183    45.58
    1674    125259    45.43
    1675    125336    46.48
    1676    125409    45.93
    1677    125477    38.08
    1678    125542    45.21
    1679    125608    48.61
    1680    125677    46.26
    1681    125747    47.28
    1682    125815    46.84
    1683    125881    47.85
    1684    125947    55.71
    1685    126014    47.91
    1686    126079    46.57
    1687    126143     47.2
    1688    126204    43.72
    1689    126266    45.62
    1690    126331    45.55
    1691    126394    51.68
    1692    126456    46.47
    1693    126521    47.76
    1694    126586    44.84
    1695    126652    46.82
    1696    126719    46.98
    1697    126786    48.34
    1698    126855    41.93
    1699    126923    43.28
    1700    126987    45.95
    1701    127053    44.91
    1702    127122    44.53
    1703    127194    46.08
    1704    127265    47.91
    1705    127334    47.88
    1706    127403    47.33
    1707    127473    46.08
    1708    127543       46
    1709    127613    47.16
    1710    127682    45.49
    1711    127752    49.34
    1712    127824    45.65
    1713    127895    45.75
    1714    127967    48.34
    1715    128042    47.07
    1716    128117    45.58
    1717    128192    47.61
    1718    128268    40.27
    1719    128345    39.61
    1720    128427    42.39
    1721    128509     42.2
    1722    128591    39.65
    1723    128675    43.41
    1724    128761    51.74
    1725    128847    40.56
    1726    128934    40.33
    1727    129020    45.17
    1728    129108    37.53
    1729    129196    35.22
    1730    129284    36.97
    1731    129371    37.05
    1732    129459    42.08
    1733    129552    37.38
    1734    129648    33.46
    1735    129746    35.31
    1736    129846    32.22
    1737    129949    32.61
    1738    130054    30.86
    1739    130158    30.62
    1740    130261    32.55
    1741    130366    27.29
    1742    130474    27.39
    1743    130586    28.15
    1744    130699    30.62
    1745    130814    31.25
    1746    130934     38.2
    1747    131061    28.14
    1748    131190    33.43
    1749    131318    30.64
    1750    131449    30.02
    1751    131578    27.89
    1752    131703     26.9
    1753    131835    26.88
    1754    131968    36.78
    1755    132102    27.82
    1756    132243     33.9
    1757    132384     38.4
    1758    132528    30.41
    1759    132677    31.26
    1760    132831    33.38
    1761    132988    38.95
    1762    133149    36.25
    1763    133318    36.35
    1764    133494    37.56
    1765    133673    40.98
    1766    133847     41.1
    1767    134018    43.11
    1768    134193    40.06
    1769    134378    45.79
    1770    134568    41.35
    1771    134759    45.78
    1772    134949    44.95
    1773    135134    44.59
    1774    135315    43.76
    1775    135494    40.41
    1776    135678    47.11
    1777    135867     40.4
    1778    136056    35.37
    1779    136242     35.9
    1780    136425    42.73
    1781    136610    46.43
    1782    136801    45.53
    1783    136999    45.11
    1784    137200    23.49
    1785    137407    29.04
    1786    137612    33.21
    1787    137810    34.06
    1788    138007    35.39
    1789    138208    42.83
    1790    138407    34.59
    1791    138603    41.55
    1792    138794    35.42
    1793    138983    31.79
    1794    139176     32.3
    1795    139376    38.82
    1796    139576     29.6
    1797    139771    27.71
    1798    139970    36.56
    1799    140174    43.86
    1800    140371    33.11
    1801    140564    34.77
    1802    140760    37.38
    1803    140952    36.95
    1804    141140    34.99
    1805    141326    42.15
    1806    141519     33.6
    1807    141713    33.08
    1808    141898    31.88
    1809    142086    35.63
    1810    142284     40.1
    1811    142479     31.4
    1812    142664    26.15
    1813    142850    40.32
    1814    143043     36.8
    1815    143240    31.13
    1816    143439     34.6
    1817    143633    29.17
    1818    143821    36.02
    1819    144008    36.44
    1820    144203    30.37
    1821    144398    29.39
    1822    144585    35.45
    1823    144770    32.89
    1824    144949    35.98
    1825    145122    39.45
    1826    145300    29.52
    1827    145484    26.45
    1828    145676    33.67
    1829    145873    37.67
    1830    146070    39.17
    1831    146258    39.21
    1832    146438    26.57
    1833    146621    32.74
    1834    146807    29.39
    1835    146997    27.22
    1836    147188     27.6
    1837    147379    27.47
    1838    147572    31.25
    1839    147762    34.13
    1840    147944    21.36
    1841    148120    31.19
    1842    148291     26.6
    1843    148462     25.8
    1844    148636    25.21
    1845    148814    34.64
    1846    148994    29.83
    1847    149177    22.07
    1848    149360     27.1
    1849    149540    26.41
    1850    149715    31.51
    1851    149891    32.32
    1852    150072    32.98
    1853    150258    26.65
    1854    150444    31.61
    1855    150625    30.01
    1856    150805    29.73
    1857    150990    39.82
    1858    151180    40.24
    1859    151373    37.52
    1860    151568    38.28
    1861    151764    34.98
    1862    151959    38.69
    1863    152155    34.39
    1864    152356    33.66
    1865    152559    34.26
    1866    152761    39.07
    1867    152970    39.02
    1868    153184    37.71
    1869    153396    34.58
    1870    153604    35.83
    1871    153807    30.02
    1872    154013    32.61
    1873    154226     33.5
    1874    154447    29.37
    1875    154664    34.58
    1876    154870    32.49
    1877    155075    33.81
    1878    155283    34.23
    1879    155494    32.45
    1880    155702    28.35
    1881    155904    32.91
    1882    156107    36.85
    1883    156316    32.26
    1884    156524    33.76
    1885    156724    23.42
    1886    156913    23.64
    1887    157091    28.45
    1888    157265    23.64
    1889    157441    26.01
    1890    157618    23.41
    1891    157796    34.93
    1892    157976    39.06
    1893    158159     47.5
    1894    158345    28.66
    1895    158534    35.93
    1896    158726    35.45
    1897    158921    32.67
    1898    159118    39.94
    1899    159318    37.69
    1900    159516    42.92
    1901    159712     39.4
    1902    159906    39.72
    1903    160100    31.51
    1904    160291    40.65
    1905    160480    39.11
    1906    160669     39.9
    1907    160855    36.65
    1908    161040    31.51
    1909    161229    33.02
    1910    161426     36.3
    1911    161632    38.46
    1912    161842    40.18
    1913    162053    31.99
    1914    162265    38.75
    1915    162477    38.46
    1916    162690    35.42
    1917    162904    34.24
    1918    163120    36.94
    1919    163336     42.8
    1920    163551    31.49
    1921    163764    20.53
    1922    163976    18.31
    1923    164185    28.87
    1924    164393    23.23
    1925    164600    34.33
    1926    164802     37.6
    1927    165000    35.61
    1928    165194    28.05
    1929    165386    29.21
    1930    165576    31.54
    1931    165766    34.05
    1932    165954    31.95
    1933    166141    23.86
    1934    166328    26.35
    1935    166515    36.21
    1936    166702    38.05
    1937    166890    23.94
    1938    167078    31.12
    1939    167267    32.43
    1940    167461    34.82
    1941    167661    31.77
    1942    167865     22.8
    1943    168072    38.71
    1944    168283     32.3
    1945    168494    36.88
    1946    168702    26.25
    1947    168911    33.53
    1948    169123    27.36
    1949    169338    30.27
    1950    169552    27.99
    1951    169758    29.18
    1952    169952    32.28
    1953    170142    24.93
    1954    170335    26.64
    1955    170531    24.37
    1956    170730    22.88
    1957    170933    24.16
    1958    171139    32.56
    1959    171351    30.33
    1960    171568     23.4
    1961    171787    28.22
    1962    172007    28.53
    1963    172226    30.94
    1964    172445    25.92
    1965    172665    26.92
    1966    172886    23.53
    1967    173105    26.73
    1968    173320    30.62
    1969    173532    22.08
    1970    173746    27.28
    1971    173961    26.37
    1972    174179    29.71
    1973    174399    26.57
    1974    174622    18.31
    1975    174844     19.4
    1976    175067    22.88
    1977    175290    28.77
    1978    175512    25.81
    1979    175732    27.57
    1980    175952    32.81
    1981    176175    34.63
    1982    176400    32.61
    1983    176630    25.99
    1984    176861    29.38
    1985    177094    29.98
    1986    177330    25.45
    1987    177569    35.26
    1988    177808    29.84
    1989    178042    28.61
    1990    178265    35.01
    1991    178482    39.06
    1992    178705     35.1
    1993    178941    38.33
    1994    179182     35.5
    1995    179421     41.5
    1996    179658    42.89
    1997    179896    39.04
    1998    180144    25.43
    1999    180400    24.17
    2000    180654    28.52
    2001    180901    36.39
    2002    181142    36.23
    2003    181383    19.61
    2004    181623    31.32
    2005    181866    35.95
    2006    182110    42.24
    2007    182357    33.36
    2008    182606    39.28
    2009    182857    42.91
    2010    183107    28.58
    2011    183351    26.33
    2012    183587    30.14
    2013    183817    34.18
    2014    184048    39.08
    2015    184283    31.73
    2016    184517    28.79
    2017    184747    28.64
    2018    184971    28.09
    2019    185188    26.41
    2020    185400    26.77
    2021    185606    26.95
    2022    185804    25.93
    2023    185994    27.06
    2024    186174    27.34
    2025    186348    27.92
    2026    186514     28.4
    2027    186679    29.29
    2028    186850    27.38
    2029    187026    25.21
    2030    187210     21.1
    2031    187402    23.42
    2032    187602     22.6
    2033    187804    21.22
    2034    188007    25.88
    2035    188211    24.49
    2036    188419    25.05
    2037    188630     21.5
    2038    188842    22.39
    2039    189053    22.03
    2040    189261     20.7
    2041    189465    21.37
    2042    189666     24.5
    2043    189862    21.48
    2044    190054    25.08
    2045    190242    28.47
    2046    190430    26.24
    2047    190622    26.59
    2048    190824    24.17
    2049    191034    23.13
    2050    191251     23.8
    2051    191473    22.03
    2052    191695    21.53
    2053    191910    17.63
    2054    192117     22.7
    2055    192322    29.08
    2056    192525    21.15
    2057    192725    26.62
    2058    192920    34.55
    2059    193109    30.49
    2060    193292    46.66
    2061    193473    36.85
    2062    193653    31.22
    2063    193833    27.68
    2064    194015    27.83
    2065    194198    34.12
    2066    194380    31.66
    2067    194557    33.16
    2068    194730    34.77
    2069    194899    30.01
    2070    195064    32.85
    2071    195227    32.96
    2072    195389    33.24
    2073    195549    33.57
    2074    195706    29.88
    2075    195863    33.45
    2076    196017    31.67
    2077    196172    33.28
    2078    196327    35.31
    2079    196482     29.2
    2080    196637    33.23
    2081    196792    34.37
    2082    196948    28.59
    2083    197104    30.93
    2084    197260    27.03
    2085    197417    29.21
    2086    197574    28.82
    2087    197732    33.75
    2088    197891    27.49
    2089    198052    28.38
    2090    198215    26.92
    2091    198379     27.6
    2092    198543    31.44
    2093    198708    25.01
    2094    198874    25.14
    2095    199043    23.77
    2096    199213    24.64
    2097    199384    28.77
    2098    199556    22.81
    2099    199733    31.65
    2100    199918    27.97
    2101    200110    25.21
    2102    200306    29.14
    2103    200505     24.9
    2104    200708    25.47
    2105    200911     26.4
    2106    201117    25.15
    2107    201324     23.9
    2108    201533    27.65
    2109    201744     29.7
    2110    201952    24.53
    2111    202156     25.2
    2112    202357    26.55
    2113    202560    31.72
    2114    202768    33.55
    2115    202975    24.87
    2116    203179    25.01
    2117    203377    36.03
    2118    203570    30.74
    2119    203757    25.88
    2120    203941    24.99
    2121    204124    27.78
    2122    204307     28.1
    2123    204489     26.5
    2124    204670    27.38
    2125    204852    28.75
    2126    205033    29.03
    2127    205215    35.17
    2128    205395    32.29
    2129    205575    30.59
    2130    205754    27.79
    2131    205933    25.48
    2132    206111     29.7
    2133    206287    27.51
    2134    206463    33.18
    2135    206636    29.69
    2136    206806    27.94
    2137    206977    29.75
    2138    207150    32.33
    2139    207327    26.92
    2140    207505    30.23
    2141    207681    27.53
    2142    207855    32.81
    2143    208028    28.95
    2144    208198    29.77
    2145    208366    28.74
    2146    208532    28.11
    2147    208696    30.42
    2148    208861    26.95
    2149    209028    26.53
    2150    209198    32.09
    2151    209368    32.13
    2152    209534    28.47
    2153    209699    30.49
    2154    209865    32.24
    2155    210034    34.91
    2156    210204     36.1
    2157    210373    34.48
    2158    210541    34.84
    2159    210710    32.04
    2160    210882    32.41
    2161    211058    29.44
    2162    211236    32.71
    2163    211412    34.94
    2164    211587     43.1
    2165    211764    35.39
    2166    211946    34.17
    2167    212130    39.56
    2168    212314    35.87
    2169    212497    39.35
    2170    212678    38.44
    2171    212858    31.44
    2172    213038    34.51
    2173    213214    33.66
    2174    213385    36.62
    2175    213553     33.6
    2176    213721    40.89
    2177    213888    45.42
    2178    214055    45.99
    2179    214224    29.69
    2180    214396    31.91
    2181    214569    26.66
    2182    214747     31.9
    2183    214930    28.93
    2184    215117    26.47
    2185    215305    31.81
    2186    215496    28.55
    2187    215692     24.3
    2188    215894    23.54
    2189    216103    22.97
    2190    216314    25.04
    2191    216527    29.01
    2192    216743     29.3
    2193    216962    30.92
    2194    217185    30.49
    2195    217409    25.14
    2196    217632    34.93
    2197    217855    23.31
    2198    218082    24.77
    2199    218312    28.69
    2200    218552    27.89
    2201    218803    27.72
    2202    219059    26.36
    2203    219321    22.03
    2204    219587    25.73
    2205    219859    26.68
    2206    220142    27.04
    2207    220441    23.64
    2208    220750    26.44
    2209    221045    21.85
    2210    221339    22.52
    2211    221642    21.47
    2212    221947    21.58
    2213    222259    30.96
    2214    222573    23.05
    2215    222893    23.76
    2216    223212    23.56
    2217    223525    21.05
    2218    223836    22.54
    2219    224137    23.39
    2220    224426     27.2
    2221    224706    25.18
    2222    224973     27.7
    2223    225224    25.68
    2224    225475    20.68
    2225    225733    21.71
    2226    225985     26.7
    2227    226241    22.08
    2228    226521    21.38
    2229    226813    22.07
    2230    227114    22.46
    2231    227427    25.42
    2232    227737    22.46
    2233    228039    22.87
    2234    228323    21.12
    2235    228585    23.75
    2236    228852    21.05
    2237    229137    27.58
    2238    229435    27.08
    2239    229739    26.04
    2240    230039    22.05
    2241    230329    26.73
    2242    230611    26.44
    2243    230888    21.47
    2244    231166    22.29
    2245    231450    18.68
    2246    231731    28.32
    2247    232015    20.92
    2248    232295    21.53
    2249    232558     24.1
    2250    232812    23.68
    2251    233070    23.05
    2252    233329    23.38
    2253    233584    21.08
    2254    233832    16.77
    2255    234073    24.43
    2256    234312    24.16
    2257    234551     28.9
    2258    234787    24.47
    2259    235014    24.85
    2260    235241    25.98
    2261    235465    26.42
    2262    235682     27.3
    2263    235897    24.69
    2264    236115    30.29
    2265    236334    30.65
    2266    236550    28.42
    2267    236769    27.95
    2268    236986    28.35
    2269    237204    25.74
    2270    237427    27.28
    2271    237642    27.91
    2272    237852    37.15
    2273    238061    37.23
    2274    238275    43.26
    2275    238493    39.47
    2276    238709    40.61
    2277    238921    45.91
    2278    239122    45.11
    2279    239321     45.6
    2280    239516    42.97
    2281    239708    43.92
    2282    239900    47.29
    2283    240090    45.67
    2284    240279    44.51
    2285    240462    43.16
    2286    240640    41.89
    2287    240812    38.61
    2288    240980    42.62
    2289    241141    44.51
    2290    241295    45.81
    2291    241449    45.12
    2292    241602    46.05
    2293    241755    44.03
    2294    241908    44.48
    2295    242063     39.6
    2296    242224    41.11
    2297    242388    45.17
    2298    242550    43.71
    2299    242713    38.49
    2300    242881    29.75
    2301    243047    42.28
    2302    243211    36.86
    2303    243375    35.27
    2304    243547    36.86
    2305    243726    35.88
    2306    243914    32.32
    2307    244117    32.27
    2308    244322    33.13
    2309    244531    28.26
    2310    244748    28.01
    2311    244970    28.92
    2312    245201    24.13
    2313    245438    26.21
    2314    245686       33
    2315    245945    26.78
    2316    246217    28.17
    2317    246511    37.32
    2318    246819    28.97
    2319    247125    27.62
    2320    247419     33.1
    2321    247707    35.26
    2322    247995    31.48
    2323    248279    30.88
    2324    248566    29.78
    2325    248860    32.11
    2326    249160    27.99
    2327    249469    26.54
    2328    249790     9.29
    2329    250125    20.29
    2330    250469    45.08
    2331    250807     38.9
    2332    251137    41.38
    2333    251465    37.47
    2334    251810     37.6
    2335    252165    35.96
    2336    252514    35.81
    2337    252861    34.85
    2338    253210     36.9
    2339    253558    47.54
    2340    253896    37.13
    2341    254225    44.21
    2342    254561    31.43
    2343    254901    37.06
    2344    255236    33.02
    2345    255589    34.53
    2346    255945    41.02
    2347    256284    36.87
    2348    256611    34.33
    2349    256934    29.22
    2350    257265    35.26
    2351    257594    26.18
    2352    257913    33.33
    2353    258229    39.47
    2354    258545    38.73
    2355    258870    39.92
    2356    259210    38.92
    2357    259556    31.75
    2358    259899    26.17
    2359    260245    31.39
    2360    260592    37.79
    2361    260925    33.08
    2362    261253    33.96
    2363    261601    27.84
    2364    261967    20.33
    2365    262324    29.75
    2366    262668    28.98
    2367    263008    29.04
    2368    263329    29.16
    2369    263641    24.56
    2370    263959    28.59
    2371    264279    28.77
    2372    264599    25.79
    2373    264924    20.62
    2374    265257    19.85
    2375    265592    23.58
    2376    265936    28.11
    2377    266290    29.39
    2378    266639    31.08
    2379    266989    32.15
    2380    267358    40.85
    2381    267735    40.45
    2382    268114    37.16
    2383    268496    35.92
    2384    268882    37.55
    2385    269271    33.45
    2386    269662    33.71
    2387    270051    38.94
    2388    270443    39.04
    2389    270849    32.25
    2390    271261    24.79
    2391    271675    28.44
    2392    272093    29.69
    2393    272515    35.17
    2394    272938     36.8
    2395    273353    33.16
    2396    273766    33.36
    2397    274177    30.71
    2398    274582    25.16
    2399    274994    31.96
    2400    275397    23.99
    2401    275792    16.04
    2402    276200    22.63
    2403    276613    28.58
    2404    277025    26.57
    2405    277419     21.6
    2406    277810    22.43
    2407    278222    27.53
    2408    278635    30.13
    2409    279042    21.24
    2410    279438    33.15
    2411    279809    26.12
    2412    280160    31.23
    2413    280514    30.47
    2414    280878    34.85
    2415    281248    25.78
    2416    281613    25.82
    2417    281968    32.23
    2418    282320    28.05
    2419    282673    30.04
    2420    283042    25.74
    2421    283403    23.87
    2422    283750    32.11
    2423    284091    27.49
    2424    284424    26.02
    2425    284759     30.4
    2426    285092    29.91
    2427    285421    32.46
    2428    285749    28.15
    2429    286067    29.53
    2430    286379    29.24
    2431    286690    30.77
    2432    287004    31.72
    2433    287320    34.84
    2434    287632    33.47
    2435    287938    27.19
    2436    288241    26.41
    2437    288544     31.9
    2438    288854    28.85
    2439    289166    29.15
    2440    289470    31.67
    2441    289758     31.5
    2442    290036    33.61
    2443    290317    29.02
    2444    290610    31.63
    2445    290916    29.88
    2446    291242    25.34
    2447    291579    29.16
    2448    291917    32.69
    2449    292265    24.64
    2450    292621    25.89
    2451    292988    28.91
    2452    293377    29.85
    2453    293767    23.99
    2454    294150    33.31
    2455    294547     31.7
    2456    294948    21.81
    2457    295334    25.74
    2458    295699    21.87
    2459    296047    26.17
    2460    296398    27.15
    2461    296766    24.26
    2462    297156    20.23
    2463    297562    28.66
    2464    297967    26.52
    2465    298365    21.74
    2466    298753    22.96
    2467    299141     23.2
    2468    299527     23.7
    2469    299902    30.04
    2470    300257    31.26
    2471    300611    25.71
    2472    300991    26.83
    2473    301394    34.07
    2474    301806    23.75
    2475    302204    27.25
    2476    302587    30.57
    2477    302965    28.24
    2478    303338    23.87
    2479    303704    27.42
    2480    304071    23.52
    2481    304441    24.04
    2482    304807    22.85
    2483    305163    25.39
    2484    305510    25.91
    2485    305868    21.77
    2486    306242    26.06
    2487    306632    24.39
    2488    307055    24.45
    2489    307491    19.97
    2490    307921    19.66
    2491    308346    21.16
    2492    308756    25.01
    2493    309153    26.77
    2494    309561    21.91
    2495    309985    20.29
    2496    310400    27.16
    2497    310804    27.23
    2498    311200    24.41
    2499    311594    24.07
    2500    311986    30.66
    2501    312372    28.33
    2502    312756    26.02
    2503    313130     32.5
    2504    313490    31.79
    2505    313837    27.01
    2506    314175    30.56
    2507    314511    28.93
    2508    314847    30.74
    2509    315179    28.15
    2510    315511    30.34
    2511    315846    26.27
    2512    316167     25.6
    2513    316469    27.83
    2514    316776    30.35
    2515    317103    27.84
    2516    317434    26.33
    2517    317770    26.84
    2518    318116    25.97
    2519    318472    26.84
    2520    318844       27
    2521    319232    23.74
    2522    319620     24.6
    2523    320006    25.23
    2524    320387    27.87
    2525    320755    30.44
    2526    321113    27.63
    2527    321464    29.91
    2528    321815    20.33
    2529    322159    23.48
    2530    322493    25.98
    2531    322819    25.53
    2532    323134     27.7
    2533    323448    32.13
    2534    323754    28.48
    2535    324053    25.89
    2536    324346    27.61
    2537    324630    28.82
    2538    324908    29.99
    2539    325186    37.74
    2540    325466    31.71
    2541    325745    33.77
    2542    326022    30.36
    2543    326293    31.13
    2544    326558    32.77
    2545    326819    37.77
    2546    327080    39.08
    2547    327342    38.53
    2548    327606     40.7
    2549    327871    39.72
    2550    328137    41.95
    2551    328400    45.02
    2552    328658    46.56
    2553    328916    50.47
    2554    329177    51.32
    2555    329438    46.68
    2556    329691     51.2
    2557    329949    51.42
    2558    330208    47.69
    2559    330461    44.79
    2560    330710    45.96
    2561    330958    49.18
    2562    331210    43.69
    2563    331468    49.73
    2564    331724    47.03
    2565    331981    46.26
    2566    332241    47.86
    2567    332500    50.04
    2568    332749    48.82
    2569    332991    51.47
    2570    333229    51.71
    2571    333455    50.15
    2572    333671    42.91
    2573    333885    46.36
    2574    334096    47.19
    2575    334296    46.06
    2576    334492    48.79
    2577    334685     48.2
    2578    334876    44.05
    2579    335062    41.57
    2580    335253    42.88
    2581    335454    42.95
    2582    335660    44.43
    2583    335873    44.28
    2584    336093    46.24
    2585    336318    45.13
    2586    336553    43.02
    2587    336804    41.16
    2588    337072    35.11
    2589    337351    32.81
    2590    337646    29.49
    2591    337960    29.14
    2592    338283    32.51
    2593    338605    31.46
    2594    338937    31.79
    2595    339287    33.78
    2596    339661    33.08
    2597    340058    33.09
    2598    340484    32.65
    2599    340938    35.03
    2600    341421    28.88
    2601    341951    32.86
    2602    342527    40.47
    2603    343117    29.47
    2604    343703    31.12
    2605    344286    31.23
    2606    344861     24.1
    2607    345424    24.36
    2608    345984    26.05
    2609    346553    25.91
    2610    347131    22.88
    2611    347697    28.51
    2612    348240    20.49
    2613    348780    20.61
    2614    349324    18.45
    2615    349838    18.17
    2616    350328    21.31
    2617    350814    21.39
    2618    351313    19.04
    2619    351819    21.87
    2620    352326     20.5
    2621    352856     18.9
    2622    353391    18.37
    2623    353923    22.57
    2624    354472    23.35
    2625    355034    22.08
    2626    355607    31.13
    2627    356203    24.08
    2628    356805    30.91
    2629    357400     24.9
    2630    358001    29.54
    2631    358607     25.9
    2632    359202    17.44
    2633    359785    15.31
    2634    360369    15.68
    2635    360953    20.25
    2636    361535    16.24
    2637    362109    20.93
    2638    362664    25.71
    2639    363212    27.38
    2640    363741    32.34
    2641    364257    24.82
    2642    364789    19.88
    2643    365338    15.73
    2644    365891    19.33
    2645    366433    23.21
    2646    366969    27.88
    2647    367509     31.9
    2648    368050    24.61
    2649    368592    29.13
    2650    369150    21.03
    2651    369701     19.7
    2652    370230    22.74
    2653    370742    31.21
    2654    371232    26.31
    2655    371712    32.14
    2656    372198    29.47
    2657    372678    29.39
    2658    373145    31.14
    2659    373627    28.98
    2660    374145    29.22
    2661    374697    25.86
    2662    375267    19.82
    2663    375825    18.74
    2664    376368    22.71
    2665    376901    22.02
    2666    377431     30.9
    2667    377958     29.3
    2668    378483    25.04
    2669    378997    27.25
    2670    379498    27.23
    2671    379982    22.91
    2672    380453    21.31
    2673    380922    24.74
    2674    381375    27.46
    2675    381809    34.56
    2676    382263    28.83
    2677    382743     27.1
    2678    383231    23.35
    2679    383724    25.31
    2680    384206    29.69
    2681    384674    28.65
    2682    385140    23.54
    2683    385602    24.98
    2684    386037    28.61
    2685    386472    28.54
    2686    386939    26.91
    2687    387448    28.63
    2688    387989    26.73
    2689    388545    20.43
    2690    389098    21.54
    2691    389629    24.74
    2692    390147    24.22
    2693    390656    25.13
    2694    391152    26.89
    2695    391636    24.92
    2696    392107    23.17
    2697    392564    27.28
    2698    393001    27.53
    2699    393424    25.73
    2700    393834    33.23
    2701    394228     30.5
    2702    394620    26.65
    2703    395017    26.88
    2704    395401    28.19
    2705    395771    32.14
    2706    396138    31.51
    2707    396503    32.87
    2708    396876    33.08
    2709    397257     31.7
    2710    397628    35.43
    2711    398000    41.41
    2712    398373    44.92
    2713    398735    42.24
    2714    399086    38.92
    2715    399437    51.53
    2716    399790    47.75
    2717    400137    48.82
    2718    400481    50.78
    2719    400823     48.8
    2720    401163    44.02
    2721    401499    50.37
    2722    401828    51.66
    2723    402155    50.41
    2724    402485    50.46
    2725    402820    51.96
    2726    403153    49.65
    2727    403483    50.76
    2728    403813    51.92
    2729    404144    49.94
    2730    404466    52.48
    2731    404784    52.25
    2732    405110    51.17
    2733    405441    52.04
    2734    405767    48.34
    2735    406087    41.72
    2736    406409    43.54
    2737    406732    50.63
    2738    407054    48.69
    2739    407382    49.25
    2740    407713    47.83
    2741    408045    41.57
    2742    408379    39.92
    2743    408716    41.18
    2744    409056    37.69
    2745    409398    41.24
    2746    409746    41.15
    2747    410098    40.55
    2748    410459    38.54
    2749    410827    39.69
    2750    411198    34.75
    2751    411570    40.95
    2752    411943    37.02
    2753    412321    36.46
    2754    412703    38.98
    2755    413085    35.59
    2756    413468    34.26
    2757    413855     36.1
    2758    414250    36.48
    2759    414646    40.37
    2760    415035    38.36
    2761    415428    37.02
    2762    415823    35.89
    2763    416223     37.3
    2764    416631    36.47
    2765    417040    32.22
    2766    417455    29.81
    2767    417877     28.9
    2768    418302    32.59
    2769    418746    29.86
    2770    419210    30.31
    2771    419677    28.55
    2772    420152    30.84
    2773    420632    31.28
    2774    421096    34.45
    2775    421530    43.26
    2776    421948    40.36
    2777    422387    31.07
    2778    422865    29.24
    2779    423370    31.19
    2780    423909    27.12
    2781    424500    28.55
    2782    425131    28.03
    2783    425795    27.02
    2784    426520     29.9
    2785    427324    31.84
    2786    428210    33.74
    2787    429124    33.72
    2788    430013    27.92
    2789    430892    34.18
    2790    431765    32.49
    2791    432654    32.44
    2792    433570    30.93
    2793    434475    30.68
    2794    435369    31.98
    2795    436245    30.88
    2796    437067       31
    2797    437839    27.74
    2798    438596    25.12
    2799    439382    30.02
    2800    440199    29.23
    2801    440977    26.48
    2802    441741    23.22
    2803    442551    32.49
    2804    443369    35.48
    2805    444165    30.79
    2806    444957    25.89
    2807    445723    32.94
    2808    446458    20.38
    2809    447221    23.66
    2810    448055    29.67
    2811    448928    26.66
    2812    449797    27.78
    2813    450655    27.01
    2814    451466    18.17
    2815    452239     18.9
    2816    453036    21.57
    2817    453883    30.78
    2818    454731    23.18
    2819    455563    22.06
    2820    456367    18.41
    2821    457112    18.63
    2822    457787    18.39
    2823    458414    20.47
    2824    459069    18.99
    2825    459804    18.27
    2826    460551    19.17
    2827    461229    19.71
    2828    461845    19.32
    2829    462475     22.5
    2830    463172    18.65
    2831    463885    19.36
    2832    464565    21.16
    2833    465219    18.08
    2834    465856    25.54
    2835    466486    25.58
    2836    467112    23.69
    2837    467736    24.66
    2838    468360    26.16
    2839    468973    26.56
    2840    469571    23.47
    2841    470158    20.32
    2842    470733    23.93
    2843    471302    25.14
    2844    471869    24.65
    2845    472436    22.72
    2846    473013    21.92
    2847    473607    23.14
    2848    474214    24.16
    2849    474827    23.24
    2850    475442    21.28
    2851    476061    20.82
    2852    476691    19.07
    2853    477318    23.44
    2854    477946    25.07
    2855    478584     22.7
    2856    479228    23.13
    2857    479873    25.64
    2858    480520    25.42
    2859    481186    24.24
    2860    481863    24.97
    2861    482546    23.59
    2862    483241    22.64
    2863    483927    22.97
    2864    484605    24.65
    2865    485280    24.23
    2866    485965    24.65
    2867    486677    22.15
    2868    487389    22.17
    2869    488084    22.18
    2870    488780    22.54
    2871    489513    24.28
    2872    490284    21.29
    2873    491068    20.77
    2874    491842    16.99
    2875    492608     17.4
    2876    493369    20.22
    2877    494132    22.24
    2878    494907    21.64
    2879    495668    20.89
    2880    496414    21.78
    2881    497157    21.61
    2882    497880    23.34
    2883    498605    21.83
    2884    499326    22.08
    2885    500029     22.7
    2886    500729    24.29
    2887    501424    22.77
    2888    502117    23.32
    2889    502806    23.12
    2890    503496    23.88
    2891    504193     25.2
    2892    504881    25.23
    2893    505566    25.28
    2894    506287    22.26
    2895    507029    25.17
    2896    507768    23.91
    2897    508529    23.71
    2898    509297    22.93
    2899    510062    23.24
    2900    510828    26.38
    2901    511590    24.98
    2902    512343    21.95
    2903    513087    22.17
    2904    513859    22.96
    2905    514695    21.65
    2906    515576    19.02
    2907    516484    19.02
    2908    517427     23.1
    2909    518379    18.74
    2910    519319    20.65
    2911    520247    27.28
    2912    521178     26.5
    2913    522103    22.85
    2914    523058    23.25
    2915    524042    28.73
    2916    525014    30.45
    2917    525981    24.58
    2918    526944    17.31
    2919    527929     17.4
    2920    528952    17.19
    2921    529985    14.74
    2922    530991    14.38
    2923    531984    14.55
    2924    532945    14.44
    2925    533822    19.93
    2926    534664    15.97
    2927    535545     13.6
    2928    536453    14.18
    2929    537325     19.3
    2930    538145    19.94
    2931    538922    22.37
    2932    539653    23.61
    2933    540386    19.76
    2934    541162    16.92
    2935    541974    15.89
    2936    542828    13.78
    2937    543714    13.98
    2938    544641    15.15
    2939    545604    15.44
    2940    546535    19.44
    2941    547429    18.36
    2942    548312    17.76
    2943    549173    17.22
    2944    550011    16.89
    2945    550839     16.7
    2946    551658    16.06
    2947    552461     17.8
    2948    553249    22.97
    2949    553996    23.62
    2950    554720    19.56
    2951    555450    18.62
    2952    556171    19.35
    2953    556894    19.44
    2954    557618    21.05
    2955    558320    21.42
    2956    559008    21.03
    2957    559703    24.35
    2958    560399     26.3
    2959    561087    25.01
    2960    561767    25.22
    2961    562449    27.53
    2962    563122    26.79
    2963    563793    28.08
    2964    564474    25.66
    2965    565156       28
    2966    565831    27.86
    2967    566512    25.85
    2968    567208    25.52
    2969    567900    27.59
    2970    568590    28.87
    2971    569276    30.26
    2972    569959    30.11
    2973    570643    28.95
    2974    571333    30.79
    2975    572033    31.52
    2976    572745    28.42
    2977    573458    28.32
    2978    574168    28.07
    2979    574889    31.33
    2980    575621    30.75
    2981    576360    32.73
    2982    577085    29.08
    2983    577797    29.02
    2984    578510    29.75
    2985    579225    30.31
    2986    579945    33.13
    2987    580682    41.21
    2988    581421    41.05
    2989    582146    42.37
    2990    582848    47.75
    2991    583528    47.03
    2992    584205    42.22
    2993    584887    29.95
    2994    585604    26.47
    2995    586374    22.29
    2996    587200    20.86
    2997    588105    19.06
    2998    589107    17.89
    2999    590184     15.6
    3000    591249    16.84
    3001    592285    17.79
    3002    593362     17.1
    3003    594464    17.68
    3004    595499    20.28
    3005    596432    21.51
    3006    597335    19.91
    3007    598312    17.83
    3008    599334    19.41
    3009    600308     24.6
    3010    601231    27.99
    3011    602162    24.24
    3012    603191    16.09
    3013    604282    15.84
    3014    605345     22.9
    3015    606373     23.6
    3016    607366    20.11
    3017    608334    17.74
    3018    609284    18.77
    3019    610209    19.45
    3020    611091    22.68
    3021    611933    23.63
    3022    612743    23.87
    3023    613516    25.38
    3024    614275    27.53
    3025    615030    32.32
    3026    615771    35.04
    3027    616508    35.98
    3028    617247    37.46
    3029    617991    37.05
    3030    618769     35.1
    3031    619563    32.04
    3032    620354    33.32
    3033    621146    32.56
    3034    621961    30.42
    3035    622800    28.84
    3036    623624    32.73
    3037    624483    30.31
    3038    625500    25.86
    3039    626734    25.59
    3040    628093    27.34
    3041    629475    28.07
    3042    630869    28.09
    3043    632276    26.97
    3044    633675       28
    3045    635007    22.54
    3046    636294    22.64
    3047    637565    21.63
    3048    638819    17.73
    3049    640094    20.44
    3050    641390    19.18
    3051    642642    18.65
    3052    643870    23.54
    3053    645163    21.52
    3054    646545    20.55
    3055    647951     18.2
    3056    649338    15.96
    3057    650769    20.87
    3058    652267    24.92
    3059    653756    20.15
    3060    655133    14.53
    3061    656416    13.46
    3062    657711    13.33
    3063    659027    12.44
    3064    660318    12.98
    3065    661547    14.55
    3066    662701    16.67
    3067    663866    18.41
    3068    665067    17.45
    3069    666196    19.87
    3070    667295    18.73
    3071    668476    17.78
    3072    669720    16.24
    3073    670923    14.97
    3074    672045    16.63
    3075    673146     18.1
    3076    674226    21.51
    3077    675270    26.95
    3078    676301    30.33
    3079    677313    30.15
    3080    678306    32.39
    3081    679280    35.99
    3082    680242    34.23
    3083    681212    31.98
    3084    682184    31.57
    3085    683137    32.19
    3086    684060    30.85
    3087    684971     26.6
    3088    685878    24.79
    3089    686750    27.83
    3090    687599    25.76
    3091    688456    26.34
    3092    689326     24.7
    3093    690197    22.76
    3094    691064    22.18
    3095    691938    24.19
    3096    692825    23.74
    3097    693720    25.03
    3098    694610    27.26
    3099    695507    24.51
    3100    696437    24.05
    3101    697394    24.32
    3102    698346     25.2
    3103    699281    20.24
    3104    700210    13.43
    3105    701147    15.16
    3106    702092    20.49
    3107    703058    23.17
    3108    704059    22.97
    3109    705090    24.06
    3110    706130    21.03
    3111    707164    20.01
    3112    708207    23.84
    3113    709266    24.85
    3114    710327    22.85
    3115    711389    21.35
    3116    712453    21.44
    3117    713540    19.68
    3118    714692    17.72
    3119    715912    14.82
    3120    717224    14.27
    3121    718625    15.52
    3122    720101    18.73
    3123    721526    14.57
    3124    722790    19.13
    3125    724003    20.98
    3126    725253    19.93
    3127    726504    17.66
    3128    727722    18.35
    3129    728916    18.14
    3130    730063    19.78
    3131    731163    21.81
    3132    732265    22.49
    3133    733354    23.69
    3134    734436    22.36
    3135    735557    20.49
    3136    736721    19.72
    3137    737961    23.18
    3138    739276    24.39
    3139    740561    27.37
    3140    741802    28.62
    3141    743035    28.33
    3142    744261    27.09
    3143    745481    22.51
    3144    746700    17.78
    3145    747922    16.14
    3146    749168    15.62
    3147    750461    15.34
    3148    751801    15.29
    3149    753186    15.28
    3150    754609     15.8
    3151    756049    15.38
    3152    757488     15.5
    3153    758917    16.08
    3154    760329    16.99
    3155    761732    16.96
    3156    763130    16.24
    3157    764504    17.74
    3158    765837    18.39
    3159    767136    19.84
    3160    768413    20.84
    3161    769689    22.02
    3162    770988    20.21
    3163    772306    19.43
    3164    773616    21.39
    3165    774897    21.89
    3166    776121    21.26
    3167    777268    17.54
    3168    778356    18.05
    3169    779401    20.45
    3170    780410    25.45
    3171    781393    27.46
    3172    782355    28.87
    3173    783309    30.56
    3174    784266    31.83
    3175    785226    26.78
    3176    786201    29.78
    3177    787198    38.76
    3178    788219    41.16
    3179    789282    44.72
    3180    790407     33.6
    3181    791604    29.08
    3182    792871     26.3
    3183    794210    21.73
    3184    795613    20.99
    3185    797055    20.63
    3186    798519     25.5
    3187    799991    30.12


